FILE:	201206191053.DTMM.EHZ.psa
DATE:	2012-06-19 10:53
STA:	DTMM
STLA:	-36.528
STLO:	147.465
SR:	100 Hz
EQLA:	-38.279
EQLO:	146.269
EQDEP:	17.24 km
EQMAG:	5.0
RHYP:	222.2 km
PGA:	6.022 mm/s/s
PGV:	0.346 mm/s

5% Damped Pseudo Response Spectral Acceleration (PSA) claculated
using time histories filtered using a 4th order Butterworth
bandpass between 0.2-50.0 Hz

Record Processed: 2016-02-09 21:19

-----------------------------------------------------------------
Period (s)	PSA (m/s/s)
-----------------------------------------------------------------
2.00923e-02	6.32067e-03
2.15443e-02	6.47033e-03
2.31013e-02	6.43007e-03
2.47708e-02	6.37333e-03
2.65609e-02	6.67765e-03
2.84804e-02	7.11911e-03
3.05386e-02	7.48787e-03
3.27455e-02	7.06380e-03
3.51119e-02	7.49897e-03
3.76494e-02	8.01050e-03
4.03702e-02	8.45705e-03
4.32876e-02	9.59265e-03
4.64159e-02	1.13917e-02
4.97702e-02	1.02774e-02
5.33670e-02	9.61250e-03
5.72237e-02	1.07289e-02
6.13591e-02	1.18277e-02
6.57933e-02	1.19569e-02
7.05480e-02	1.16862e-02
7.56463e-02	1.37367e-02
8.11131e-02	1.57378e-02
8.69749e-02	1.81997e-02
9.32603e-02	2.21380e-02
1.00000e-01	1.68744e-02
1.07227e-01	2.16474e-02
1.14976e-01	2.32631e-02
1.23285e-01	1.87786e-02
1.32194e-01	1.90777e-02
1.41747e-01	2.05343e-02
1.51991e-01	1.66323e-02
1.62975e-01	1.47679e-02
1.74753e-01	1.28568e-02
1.87382e-01	1.50031e-02
2.00923e-01	1.68599e-02
2.15443e-01	1.97852e-02
2.31013e-01	1.98937e-02
2.47708e-01	1.97632e-02
2.65609e-01	1.87099e-02
2.84804e-01	2.03289e-02
3.05386e-01	1.82364e-02
3.27455e-01	1.28388e-02
3.51119e-01	1.19691e-02
3.76494e-01	1.55554e-02
4.03702e-01	1.39903e-02
4.32876e-01	1.58647e-02
4.64159e-01	2.14035e-02
4.97702e-01	1.83400e-02
5.33670e-01	1.53494e-02
5.72237e-01	1.22718e-02
6.13591e-01	1.07883e-02
6.57933e-01	1.09415e-02
7.05480e-01	9.18485e-03
7.56463e-01	8.87300e-03
8.11131e-01	9.74240e-03
8.69749e-01	7.16517e-03
9.32603e-01	6.32481e-03
1.00000e+00	4.87122e-03
1.07227e+00	3.34782e-03
1.14976e+00	3.78781e-03
1.23285e+00	3.06866e-03
1.32194e+00	2.17158e-03
1.41747e+00	1.49661e-03
1.51991e+00	1.61372e-03
1.62975e+00	1.33886e-03
1.74753e+00	8.32450e-04
1.87382e+00	7.38286e-04
2.00923e+00	8.17198e-04
2.15443e+00	8.18595e-04
2.31013e+00	6.26345e-04
2.47708e+00	4.64152e-04
2.65609e+00	3.86777e-04
2.84804e+00	2.82267e-04
3.05386e+00	2.15445e-04
3.27455e+00	1.65402e-04
3.51119e+00	1.40256e-04
3.76494e+00	1.31183e-04
4.03702e+00	1.15812e-04
4.32876e+00	1.03225e-04
4.64159e+00	8.39663e-05
4.97702e+00	7.05102e-05
